#
#
#
#
#
#
#
# Quelldatei:purecomp004.gxx
# Zieldatei:purecomp004.dat
#
# Querschnitt: 172.034
# Messlaenge:   15.000
# [N/mm**2]	[N]		[%-ext]		[%-trav]	[s]		[mm]
-0.000000	-0.000000	-0.000000	-0.000000	0.000000	267.301000
-0.006400	-1.100000	-0.840000	-0.840000	0.119213	267.301000
-0.006600	-1.140000	-0.840000	-0.840000	0.119213	267.300000
-0.006700	-1.160000	-0.840000	-0.840000	0.119213	267.298000
-0.007200	-1.240000	-0.873300	-0.873300	0.123939	267.289000
-0.008500	-1.460000	-0.906700	-0.906700	0.128679	267.281000
-0.010000	-1.720000	-0.940000	-0.940000	0.133405	267.272000
-0.011500	-1.980000	-0.940000	-0.940000	0.133405	267.263000
-0.012900	-2.220000	-0.973300	-0.973300	0.138131	267.255000
-0.014200	-2.440000	-1.000000	-1.000000	0.141920	267.246000
-0.015600	-2.680000	-1.033300	-1.033300	0.146646	267.237000
-0.017000	-2.920000	-1.066700	-1.066700	0.151387	267.229000
-0.018300	-3.140000	-1.100000	-1.100000	0.156113	267.220000
-0.019500	-3.360000	-1.100000	-1.100000	0.156113	267.204000
-0.023700	-4.080000	-1.226700	-1.226700	0.174094	267.155000
-0.030100	-5.180000	-1.453300	-1.453300	0.206253	267.114000
-0.036700	-6.320000	-1.520000	-1.520000	0.215719	267.073000
-0.043200	-7.440000	-1.620000	-1.620000	0.229911	267.032000
-0.049400	-8.500000	-1.846700	-1.846700	0.262085	266.991000
-0.055100	-9.480000	-1.973300	-1.973300	0.280052	266.951000
-0.061400	-10.560000	-2.073300	-2.073300	0.294244	266.909000
-0.067500	-11.620000	-2.266700	-2.266700	0.321691	266.866000
-0.073200	-12.600000	-2.393300	-2.393300	0.339658	266.825000
-0.079200	-13.620000	-2.493300	-2.493300	0.353850	266.779000
-0.087000	-14.960000	-2.753300	-2.753300	0.390750	266.714000
-0.095700	-16.460000	-3.006700	-3.006700	0.426712	266.655000
-0.104500	-17.980000	-3.140000	-3.140000	0.445630	266.596000
-0.113300	-19.500000	-3.366700	-3.366700	0.477804	266.536000
-0.122100	-21.000000	-3.626700	-3.626700	0.514703	266.476000
-0.130700	-22.480000	-3.786700	-3.786700	0.537410	266.415000
-0.139400	-23.980000	-3.946700	-3.946700	0.560118	266.354000
-0.148100	-25.480000	-4.206700	-4.206700	0.597017	266.294000
-0.156700	-26.960000	-4.400000	-4.400000	0.624450	266.233000
-0.165400	-28.460000	-4.560000	-4.560000	0.647157	266.170000
-0.174500	-30.020000	-4.820000	-4.820000	0.684057	266.101000
-0.184300	-31.700000	-5.080000	-5.080000	0.720956	266.033000
-0.194100	-33.400000	-5.306700	-5.306700	0.753129	265.964000
-0.203800	-35.060000	-5.533300	-5.533300	0.785289	265.896000
-0.213700	-36.760000	-5.793300	-5.793300	0.822188	265.827000
-0.223400	-38.440000	-6.020000	-6.020000	0.854361	265.758000
-0.233600	-40.180000	-6.213300	-6.213300	0.881794	265.689000
-0.243700	-41.920000	-6.473300	-6.473300	0.918694	265.621000
-0.253700	-43.640000	-6.666700	-6.666700	0.946141	265.552000
-0.263300	-45.300000	-6.926700	-6.926700	0.983041	265.482000
-0.273300	-47.020000	-7.186700	-7.186700	1.019940	265.409000
-0.283800	-48.820000	-7.413300	-7.413300	1.052099	265.336000
-0.294400	-50.640000	-7.640000	-7.640000	1.084272	265.264000
-0.304900	-52.460000	-7.893300	-7.893300	1.120221	265.192000
-0.315400	-54.260000	-8.120000	-8.120000	1.152394	265.119000
-0.326000	-56.080000	-8.346700	-8.346700	1.184568	265.046000
-0.336700	-57.920000	-8.606700	-8.606700	1.221467	264.973000
-0.347100	-59.720000	-8.866700	-8.866700	1.258366	264.901000
-0.357600	-61.520000	-9.126700	-9.126700	1.295266	264.828000
-0.368000	-63.300000	-9.353300	-9.353300	1.327425	264.755000
-0.378400	-65.100000	-9.580000	-9.580000	1.359598	264.682000
-0.389200	-66.960000	-9.806700	-9.806700	1.391771	264.609000
-0.400200	-68.840000	-10.033300	-10.033300	1.423931	264.535000
-0.411000	-70.700000	-10.260000	-10.260000	1.456104	264.462000
-0.421900	-72.580000	-10.520000	-10.520000	1.493003	264.389000
-0.432800	-74.460000	-10.773300	-10.773300	1.528952	264.316000
-0.443500	-76.300000	-11.000000	-11.000000	1.561125	264.243000
-0.454300	-78.160000	-11.260000	-11.260000	1.598024	264.169000
-0.464900	-79.980000	-11.520000	-11.520000	1.634924	264.095000
-0.476000	-81.880000	-11.713300	-11.713300	1.662357	264.021000
-0.487100	-83.800000	-12.006700	-12.006700	1.703996	263.947000
-0.498300	-85.720000	-12.266700	-12.266700	1.740896	263.872000
-0.509200	-87.600000	-12.520000	-12.520000	1.776844	263.798000
-0.520400	-89.520000	-12.780000	-12.780000	1.813744	263.723000
-0.531500	-91.440000	-13.073300	-13.073300	1.855369	263.648000
-0.542600	-93.340000	-13.300000	-13.300000	1.887542	263.573000
-0.553800	-95.280000	-13.560000	-13.560000	1.924442	263.498000
-0.565100	-97.220000	-13.820000	-13.820000	1.961341	263.423000
-0.576400	-99.160000	-14.073300	-14.073300	1.997289	263.348000
-0.587700	-101.100000	-14.300000	-14.300000	2.029463	263.273000
-0.599100	-103.060000	-14.526700	-14.526700	2.061636	263.200000
-0.610600	-105.040000	-14.753300	-14.753300	2.093795	263.126000
-0.622000	-107.000000	-15.013300	-15.013300	2.130695	263.051000
-0.633100	-108.920000	-15.206700	-15.206700	2.158142	262.978000
-0.644300	-110.840000	-15.500000	-15.500000	2.199767	262.904000
-0.655700	-112.800000	-15.760000	-15.760000	2.236667	262.830000
-0.667000	-114.740000	-16.020000	-16.020000	2.273566	262.756000
-0.678200	-116.680000	-16.280000	-16.280000	2.310465	262.682000
-0.689700	-118.660000	-16.533300	-16.533300	2.346414	262.608000
-0.701300	-120.640000	-16.793300	-16.793300	2.383313	262.534000
-0.712900	-122.640000	-17.086700	-17.086700	2.424952	262.460000
-0.724500	-124.640000	-17.346700	-17.346700	2.461852	262.385000
-0.736300	-126.660000	-17.606700	-17.606700	2.498751	262.311000
-0.748100	-128.700000	-17.833300	-17.833300	2.530910	262.237000
-0.760000	-130.740000	-18.086700	-18.086700	2.566873	262.162000
-0.771600	-132.740000	-18.313300	-18.313300	2.599032	262.087000
-0.783600	-134.800000	-18.573300	-18.573300	2.635931	262.013000
-0.795400	-136.840000	-18.800000	-18.800000	2.668105	261.939000
-0.807600	-138.940000	-19.060000	-19.060000	2.705004	261.864000
-0.819800	-141.040000	-19.320000	-19.320000	2.741903	261.790000
-0.831900	-143.120000	-19.546700	-19.546700	2.774077	261.716000
-0.843900	-145.180000	-19.806700	-19.806700	2.810976	261.642000
-0.856000	-147.260000	-20.060000	-20.060000	2.846925	261.569000
-0.867900	-149.300000	-20.260000	-20.260000	2.875309	261.494000
-0.879900	-151.380000	-20.513300	-20.513300	2.911257	261.420000
-0.892300	-153.500000	-20.740000	-20.740000	2.943431	261.346000
-0.904500	-155.600000	-20.966700	-20.966700	2.975604	261.272000
-0.916700	-157.700000	-21.226700	-21.226700	3.012503	261.199000
-0.929000	-159.820000	-21.486700	-21.486700	3.049403	261.125000
-0.941300	-161.940000	-21.713300	-21.713300	3.081562	261.050000
-0.954000	-164.120000	-21.973300	-21.973300	3.118461	260.975000
-0.966600	-166.280000	-22.233300	-22.233300	3.155360	260.901000
-0.979100	-168.440000	-22.460000	-22.460000	3.187534	260.826000
-0.991800	-170.620000	-22.720000	-22.720000	3.224433	260.751000
-1.004500	-172.800000	-22.940000	-22.940000	3.255656	260.676000
-1.017200	-175.000000	-23.200000	-23.200000	3.292555	260.602000
-1.030100	-177.220000	-23.460000	-23.460000	3.329454	260.527000
-1.043100	-179.440000	-23.720000	-23.720000	3.366353	260.452000
-1.056000	-181.660000	-23.980000	-23.980000	3.403253	260.377000
-1.069100	-183.920000	-24.206700	-24.206700	3.435426	260.302000
-1.082200	-186.180000	-24.400000	-24.400000	3.462859	260.227000
-1.095500	-188.460000	-24.626700	-24.626700	3.495033	260.152000
-1.108600	-190.720000	-24.886700	-24.886700	3.531932	260.077000
-1.119700	-192.620000	-25.113300	-25.113300	3.564091	260.058000
-1.076300	-185.160000	-24.980000	-24.980000	3.583009	260.092000
-1.066500	-183.480000	-24.920000	-24.920000	3.591525	260.115000
-1.056800	-181.800000	-24.886700	-24.886700	3.596250	260.139000
-1.047100	-180.140000	-24.786700	-24.786700	3.610443	260.165000
-1.037600	-178.500000	-24.693300	-24.693300	3.623698	260.192000
-1.027800	-176.820000	-24.626700	-24.626700	3.633150	260.220000
-1.017900	-175.120000	-24.526700	-24.526700	3.647342	260.248000
-1.008200	-173.440000	-24.433300	-24.433300	3.660597	260.284000
-0.994900	-171.160000	-24.273300	-24.273300	3.683304	260.347000
-0.977600	-168.180000	-24.046700	-24.046700	3.715464	260.408000
-0.960300	-165.200000	-23.913300	-23.913300	3.734396	260.466000
-0.943800	-162.360000	-23.720000	-23.720000	3.761829	260.525000
-0.927800	-159.620000	-23.426700	-23.426700	3.803454	260.585000
-0.912500	-156.980000	-23.266700	-23.266700	3.826162	260.645000
-0.897000	-154.320000	-23.073300	-23.073300	3.853609	260.706000
-0.881900	-151.720000	-22.813300	-22.813300	3.890508	260.767000
-0.867500	-149.240000	-22.653300	-22.653300	3.913216	260.828000
-0.852700	-146.700000	-22.493300	-22.493300	3.935923	260.893000
-0.837200	-144.020000	-22.200000	-22.200000	3.977548	260.965000
-0.821000	-141.240000	-21.973300	-21.973300	4.009722	261.036000
-0.804700	-138.440000	-21.746700	-21.746700	4.041881	261.107000
-0.788800	-135.700000	-21.486700	-21.486700	4.078780	261.180000
-0.773200	-133.020000	-21.260000	-21.260000	4.110953	261.252000
-0.757900	-130.380000	-21.033300	-21.033300	4.143127	261.324000
-0.742800	-127.780000	-20.773300	-20.773300	4.180026	261.396000
-0.727800	-125.200000	-20.546700	-20.546700	4.212185	261.468000
-0.713000	-122.660000	-20.320000	-20.320000	4.244359	261.541000
-0.698100	-120.100000	-20.126700	-20.126700	4.271792	261.614000
-0.683400	-117.560000	-19.866700	-19.866700	4.308691	261.689000
-0.668700	-115.040000	-19.613300	-19.613300	4.344654	261.764000
-0.654300	-112.560000	-19.353300	-19.353300	4.381553	261.840000
-0.640000	-110.100000	-19.093300	-19.093300	4.418452	261.915000
-0.625600	-107.620000	-18.833300	-18.833300	4.455352	261.991000
-0.611500	-105.200000	-18.606700	-18.606700	4.487511	262.067000
-0.597400	-102.780000	-18.346700	-18.346700	4.524410	262.142000
-0.583700	-100.420000	-18.120000	-18.120000	4.556584	262.217000
-0.570100	-98.080000	-17.860000	-17.860000	4.593483	262.293000
-0.556800	-95.780000	-17.573300	-17.573300	4.634172	262.368000
-0.543600	-93.520000	-17.313300	-17.313300	4.671071	262.445000
-0.530400	-91.240000	-17.053300	-17.053300	4.707970	262.521000
-0.517200	-88.980000	-16.733300	-16.733300	4.753385	262.598000
-0.504300	-86.760000	-16.473300	-16.473300	4.790284	262.674000
-0.491600	-84.580000	-16.246700	-16.246700	4.822443	262.750000
-0.479100	-82.420000	-15.986700	-15.986700	4.859343	262.826000
-0.466800	-80.300000	-15.693300	-15.693300	4.900982	262.903000
-0.454600	-78.200000	-15.433300	-15.433300	4.937881	262.979000
-0.442400	-76.100000	-15.180000	-15.180000	4.973830	263.055000
-0.430300	-74.020000	-14.953300	-14.953300	5.006003	263.131000
-0.418400	-71.980000	-14.726700	-14.726700	5.038162	263.204000
-0.406800	-69.980000	-14.466700	-14.466700	5.075062	263.278000
-0.395600	-68.060000	-14.240000	-14.240000	5.107235	263.351000
-0.384300	-66.120000	-14.013300	-14.013300	5.139408	263.425000
-0.373300	-64.220000	-13.720000	-13.720000	5.181034	263.498000
-0.362500	-62.360000	-13.493300	-13.493300	5.213207	263.572000
-0.351700	-60.500000	-13.300000	-13.300000	5.240640	263.646000
-0.341000	-58.660000	-13.006700	-13.006700	5.282266	263.719000
-0.330200	-56.800000	-12.720000	-12.720000	5.322954	263.793000
-0.319600	-54.980000	-12.493300	-12.493300	5.355128	263.866000
-0.309000	-53.160000	-12.233300	-12.233300	5.392027	263.940000
-0.298400	-51.340000	-11.973300	-11.973300	5.428926	264.014000
-0.288000	-49.540000	-11.780000	-11.780000	5.456359	264.088000
-0.277500	-47.740000	-11.553300	-11.553300	5.488533	264.162000
-0.267000	-45.940000	-11.260000	-11.260000	5.530158	264.236000
-0.256700	-44.160000	-11.000000	-11.000000	5.567057	264.310000
-0.246500	-42.400000	-10.773300	-10.773300	5.599231	264.383000
-0.236300	-40.660000	-10.520000	-10.520000	5.635179	264.457000
-0.226500	-38.960000	-10.260000	-10.260000	5.672079	264.532000
-0.216500	-37.240000	-10.033300	-10.033300	5.704252	264.606000
-0.206600	-35.540000	-9.806700	-9.806700	5.736411	264.681000
-0.196500	-33.800000	-9.613300	-9.613300	5.763859	264.755000
-0.186700	-32.120000	-9.353300	-9.353300	5.800758	264.829000
-0.177100	-30.460000	-9.060000	-9.060000	5.842383	264.903000
-0.167500	-28.820000	-8.800000	-8.800000	5.879282	264.978000
-0.158000	-27.180000	-8.573300	-8.573300	5.911456	265.052000
-0.148500	-25.540000	-8.313300	-8.313300	5.948355	265.127000
-0.139200	-23.940000	-8.060000	-8.060000	5.984304	265.201000
-0.129900	-22.340000	-7.833300	-7.833300	6.016477	265.275000
-0.120400	-20.720000	-7.573300	-7.573300	6.053376	265.350000
-0.111000	-19.100000	-7.346700	-7.346700	6.085535	265.425000
-0.101800	-17.520000	-7.086700	-7.086700	6.122435	265.501000
-0.092500	-15.920000	-6.793300	-6.793300	6.164074	265.576000
-0.083600	-14.380000	-6.566700	-6.566700	6.196233	265.651000
-0.074300	-12.780000	-6.340000	-6.340000	6.228407	265.727000
-0.065200	-11.220000	-6.086700	-6.086700	6.264355	265.802000
-0.056400	-9.700000	-5.860000	-5.860000	6.296529	265.877000
-0.047400	-8.160000	-5.600000	-5.600000	6.333428	265.953000
-0.038700	-6.660000	-5.306700	-5.306700	6.375053	266.028000
-0.030000	-5.160000	-5.046700	-5.046700	6.411953	266.103000
-0.021500	-3.700000	-4.820000	-4.820000	6.444126	266.178000
-0.013100	-2.260000	-4.560000	-4.560000	6.481025	266.253000
-0.004700	-0.800000	-4.306700	-4.306700	6.516974	266.328000
0.003700	0.640000	-4.080000	-4.080000	6.549147	266.404000
0.012000	2.060000	-3.853300	-3.853300	6.581320	266.478000
0.020200	3.480000	-3.593300	-3.593300	6.618220	266.553000
0.028300	4.860000	-3.366700	-3.366700	6.650379	266.628000
0.036400	6.260000	-3.106700	-3.106700	6.687278	266.703000
0.044300	7.620000	-2.846700	-2.846700	6.724178	266.778000
0.051900	8.920000	-2.620000	-2.620000	6.756351	266.853000
0.059600	10.260000	-2.393300	-2.393300	6.788524	266.928000
0.067400	11.600000	-2.133300	-2.133300	6.825424	267.004000
0.075000	12.900000	-1.906700	-1.906700	6.857583	267.079000
0.082400	14.180000	-1.680000	-1.680000	6.889756	267.154000
0.089900	15.460000	-1.453300	-1.453300	6.921930	267.230000
0.097200	16.720000	-1.260000	-1.260000	6.949363	267.305000
0.104400	17.960000	-1.033300	-1.033300	6.981536	267.380000
0.111500	19.180000	-0.773300	-0.773300	7.018435	267.456000
0.118300	20.360000	-0.553300	-0.553300	7.049658	267.531000
0.125100	21.520000	-0.353300	-0.353300	7.078042	267.607000
0.131700	22.660000	-0.126700	-0.126700	7.110201	267.686000
0.138100	23.760000	0.066700	0.066700	7.137649	267.740000
0.140400	24.160000	0.126700	0.126700	7.146164	267.748000
0.138600	23.840000	0.066700	0.066700	7.154679	267.752000
0.136300	23.440000	0.066700	0.066700	7.154679	267.754000
0.133800	23.020000	0.100000	0.100000	7.159405	267.755000
0.131600	22.640000	0.100000	0.100000	7.159405	267.756000
0.129600	22.300000	0.100000	0.100000	7.159405	267.757000
0.127600	21.960000	0.100000	0.100000	7.159405	267.757000
0.126100	21.700000	0.100000	0.100000	7.159405	267.758000
0.124500	21.420000	0.100000	0.100000	7.159405	267.724000
0.121400	20.880000	0.100000	0.100000	7.159405	267.698000
0.116700	20.080000	0.000000	0.000000	7.173597	267.670000
0.111500	19.180000	-0.100000	-0.100000	7.187789	267.640000
0.106400	18.300000	-0.126700	-0.126700	7.191578	267.609000
0.101000	17.380000	-0.226700	-0.226700	7.205770	267.576000
0.095700	16.460000	-0.326700	-0.326700	7.219963	267.541000
0.090300	15.540000	-0.420000	-0.420000	7.233204	267.506000
0.085100	14.640000	-0.520000	-0.520000	7.247396	267.469000
0.079500	13.680000	-0.646700	-0.646700	7.265377	267.427000
0.072000	12.380000	-0.806700	-0.806700	7.288084	267.355000
0.062700	10.780000	-1.133300	-1.133300	7.334436	267.291000
0.053200	9.160000	-1.260000	-1.260000	7.352417	267.226000
0.043400	7.460000	-1.426700	-1.426700	7.376075	267.159000
0.033500	5.760000	-1.680000	-1.680000	7.412024	267.092000
0.023800	4.100000	-1.880000	-1.880000	7.440408	267.024000
0.014100	2.420000	-2.073300	-2.073300	7.467841	266.957000
0.004100	0.700000	-2.326700	-2.326700	7.503803	266.889000
-0.005800	-1.000000	-2.493300	-2.493300	7.527447	266.820000
-0.015700	-2.700000	-2.686700	-2.686700	7.554895	266.749000
-0.026300	-4.520000	-2.980000	-2.980000	7.596520	266.672000
-0.037100	-6.380000	-3.266700	-3.266700	7.637209	266.595000
-0.048200	-8.300000	-3.460000	-3.460000	7.664642	266.518000
-0.059600	-10.260000	-3.720000	-3.720000	7.701541	266.440000
-0.070900	-12.200000	-4.013300	-4.013300	7.743167	266.362000
-0.082100	-14.120000	-4.206700	-4.206700	7.770614	266.285000
-0.093500	-16.080000	-4.466700	-4.466700	7.807513	266.207000
-0.104600	-18.000000	-4.760000	-4.760000	7.849139	266.129000
-0.115800	-19.920000	-5.013300	-5.013300	7.885087	266.051000
-0.127000	-21.840000	-5.273300	-5.273300	7.921986	265.972000
-0.138200	-23.780000	-5.566700	-5.566700	7.963626	265.895000
-0.149400	-25.700000	-5.826700	-5.826700	8.000525	265.817000
-0.160700	-27.640000	-6.086700	-6.086700	8.037424	265.739000
-0.172100	-29.600000	-6.340000	-6.340000	8.073373	265.660000
-0.183500	-31.560000	-6.566700	-6.566700	8.105546	265.583000
-0.194800	-33.520000	-6.826700	-6.826700	8.142446	265.504000
-0.206200	-35.480000	-7.120000	-7.120000	8.184071	265.426000
-0.217500	-37.420000	-7.380000	-7.380000	8.220970	265.348000
-0.229000	-39.400000	-7.640000	-7.640000	8.257869	265.270000
-0.240500	-41.380000	-7.893300	-7.893300	8.293818	265.192000
-0.252000	-43.360000	-8.120000	-8.120000	8.325991	265.116000
-0.263300	-45.300000	-8.380000	-8.380000	8.362891	265.039000
-0.274600	-47.240000	-8.640000	-8.640000	8.399790	264.962000
-0.285800	-49.160000	-8.900000	-8.900000	8.436689	264.886000
-0.296900	-51.080000	-9.193300	-9.193300	8.478315	264.809000
-0.308100	-53.000000	-9.446700	-9.446700	8.514277	264.733000
-0.319500	-54.960000	-9.706700	-9.706700	8.551177	264.656000
-0.331000	-56.940000	-9.933300	-9.933300	8.583336	264.580000
-0.342600	-58.940000	-10.160000	-10.160000	8.615509	264.504000
-0.354000	-60.900000	-10.420000	-10.420000	8.652408	264.427000
-0.365400	-62.860000	-10.680000	-10.680000	8.689308	264.351000
-0.377000	-64.860000	-10.973300	-10.973300	8.730933	264.275000
-0.388500	-66.840000	-11.193300	-11.193300	8.762155	264.199000
-0.400000	-68.820000	-11.453300	-11.453300	8.799055	264.123000
-0.411400	-70.780000	-11.746700	-11.746700	8.840694	264.047000
-0.423100	-72.780000	-11.940000	-11.940000	8.868128	263.971000
-0.435000	-74.840000	-12.200000	-12.200000	8.905027	263.895000
-0.446700	-76.840000	-12.460000	-12.460000	8.941926	263.819000
-0.458300	-78.840000	-12.746700	-12.746700	8.982615	263.743000
-0.469900	-80.840000	-13.006700	-13.006700	9.019514	263.667000
-0.481500	-82.840000	-13.266700	-13.266700	9.056413	263.593000
-0.492700	-84.760000	-13.493300	-13.493300	9.088573	263.518000
-0.504100	-86.720000	-13.753300	-13.753300	9.125472	263.444000
-0.515500	-88.680000	-14.013300	-14.013300	9.162371	263.369000
-0.527000	-90.660000	-14.240000	-14.240000	9.194545	263.295000
-0.538500	-92.640000	-14.500000	-14.500000	9.231444	263.220000
-0.550100	-94.640000	-14.726700	-14.726700	9.263617	263.146000
-0.561800	-96.640000	-14.980000	-14.980000	9.299566	263.072000
-0.573500	-98.660000	-15.206700	-15.206700	9.331739	262.997000
-0.585200	-100.680000	-15.433300	-15.433300	9.363898	262.923000
-0.597000	-102.700000	-15.693300	-15.693300	9.400798	262.848000
-0.608800	-104.740000	-15.986700	-15.986700	9.442437	262.773000
-0.620600	-106.760000	-16.213300	-16.213300	9.474596	262.698000
-0.632600	-108.820000	-16.473300	-16.473300	9.511496	262.623000
-0.644500	-110.880000	-16.733300	-16.733300	9.548395	262.548000
-0.656700	-112.980000	-16.986700	-16.986700	9.584358	262.473000
-0.668800	-115.060000	-17.280000	-17.280000	9.625983	262.398000
-0.681000	-117.160000	-17.540000	-17.540000	9.662882	262.323000
-0.693100	-119.240000	-17.766700	-17.766700	9.695055	262.248000
-0.705400	-121.360000	-18.026700	-18.026700	9.731955	262.174000
-0.717400	-123.420000	-18.286700	-18.286700	9.768854	262.099000
-0.729900	-125.560000	-18.506700	-18.506700	9.800077	262.025000
-0.742100	-127.660000	-18.733300	-18.733300	9.832236	261.951000
-0.754300	-129.760000	-18.993300	-18.993300	9.869135	261.877000
-0.766600	-131.880000	-19.253300	-19.253300	9.906034	261.804000
-0.778800	-133.980000	-19.513300	-19.513300	9.942934	261.730000
-0.791200	-136.120000	-19.740000	-19.740000	9.975107	261.655000
-0.803700	-138.260000	-19.966700	-19.966700	10.007281	261.582000
-0.816100	-140.400000	-20.193300	-20.193300	10.039440	261.508000
-0.828700	-142.560000	-20.386700	-20.386700	10.066887	261.434000
-0.841300	-144.740000	-20.646700	-20.646700	10.103786	261.359000
-0.854300	-146.960000	-20.906700	-20.906700	10.140686	261.284000
-0.867200	-149.180000	-21.133300	-21.133300	10.172845	261.209000
-0.880200	-151.420000	-21.386700	-21.386700	10.208808	261.134000
-0.893300	-153.680000	-21.646700	-21.646700	10.245707	261.059000
-0.906300	-155.920000	-21.873300	-21.873300	10.277866	260.984000
-0.919200	-158.140000	-22.133300	-22.133300	10.314765	260.910000
-0.932300	-160.380000	-22.360000	-22.360000	10.346939	260.835000
-0.945400	-162.640000	-22.586700	-22.586700	10.379112	260.760000
-0.958800	-164.940000	-22.846700	-22.846700	10.416011	260.684000
-0.972400	-167.280000	-23.106700	-23.106700	10.452911	260.608000
-0.986200	-169.660000	-23.366700	-23.366700	10.489810	260.532000
-1.000000	-172.040000	-23.620000	-23.620000	10.525759	260.456000
-1.013900	-174.420000	-23.880000	-23.880000	10.562658	260.379000
-1.027900	-176.840000	-24.106700	-24.106700	10.594831	260.303000
-1.041900	-179.240000	-24.333300	-24.333300	10.626990	260.227000
-1.056000	-181.660000	-24.560000	-24.560000	10.659164	260.150000
-1.070100	-184.100000	-24.820000	-24.820000	10.696063	260.074000
-1.084200	-186.520000	-25.080000	-25.080000	10.732962	260.000000
-1.093400	-188.100000	-25.240000	-25.240000	10.755670	260.000000
-1.052900	-181.140000	-25.146700	-25.146700	10.768911	260.034000
-1.047200	-180.160000	-25.113300	-25.113300	10.773651	260.043000
-1.041500	-179.180000	-25.080000	-25.080000	10.778377	260.060000
-1.030700	-177.320000	-24.920000	-24.920000	10.801084	260.115000
-1.015000	-174.620000	-24.660000	-24.660000	10.837984	260.164000
-0.999200	-171.900000	-24.593300	-24.593300	10.847450	260.211000
-0.983800	-169.240000	-24.466700	-24.466700	10.865417	260.259000
-0.969100	-166.720000	-24.240000	-24.240000	10.897590	260.308000
-0.954900	-164.280000	-24.206700	-24.206700	10.902316	260.358000
-0.940600	-161.820000	-24.013300	-24.013300	10.929764	260.408000
-0.926700	-159.420000	-23.786700	-23.786700	10.961923	260.459000
-0.913200	-157.100000	-23.686700	-23.686700	10.976115	260.511000
-0.899500	-154.740000	-23.460000	-23.460000	11.008288	260.566000
-0.884000	-152.080000	-23.200000	-23.200000	11.045187	260.638000
-0.867000	-149.160000	-22.973300	-22.973300	11.077361	260.705000
-0.850200	-146.260000	-22.780000	-22.780000	11.104794	260.773000
-0.833800	-143.440000	-22.553300	-22.553300	11.136967	260.841000
-0.817900	-140.700000	-22.293300	-22.293300	11.173867	260.910000
-0.802100	-137.980000	-22.100000	-22.100000	11.201300	260.979000
-0.786500	-135.300000	-21.873300	-21.873300	11.233473	261.048000
-0.771200	-132.680000	-21.613300	-21.613300	11.270373	261.118000
-0.756400	-130.120000	-21.386700	-21.386700	11.302532	261.187000
-0.741500	-127.560000	-21.166700	-21.166700	11.333754	261.258000
-0.726500	-124.980000	-20.906700	-20.906700	11.370654	261.331000
-0.711300	-122.360000	-20.680000	-20.680000	11.402827	261.404000
-0.696500	-119.820000	-20.453300	-20.453300	11.435000	261.477000
-0.681700	-117.280000	-20.226700	-20.226700	11.467160	261.550000
-0.667000	-114.740000	-20.033300	-20.033300	11.494607	261.623000
-0.652500	-112.260000	-19.773300	-19.773300	11.531506	261.696000
-0.638400	-109.820000	-19.513300	-19.513300	11.568406	261.770000
-0.624400	-107.420000	-19.286700	-19.286700	11.600565	261.844000
-0.610500	-105.020000	-19.026700	-19.026700	11.637464	261.917000
-0.596700	-102.660000	-18.766700	-18.766700	11.674363	261.991000
-0.583100	-100.320000	-18.540000	-18.540000	11.706537	262.067000
-0.569300	-97.940000	-18.313300	-18.313300	11.738710	262.142000
-0.555800	-95.620000	-18.060000	-18.060000	11.774659	262.217000
-0.542600	-93.340000	-17.766700	-17.766700	11.816284	262.293000
-0.529400	-91.080000	-17.540000	-17.540000	11.848457	262.369000
-0.516300	-88.820000	-17.280000	-17.280000	11.885357	262.445000
-0.503300	-86.580000	-16.986700	-16.986700	11.926982	262.520000
-0.490400	-84.360000	-16.700000	-16.700000	11.967671	262.596000
-0.477800	-82.200000	-16.473300	-16.473300	11.999844	262.672000
-0.465300	-80.040000	-16.213300	-16.213300	12.036743	262.747000
-0.452900	-77.920000	-15.920000	-15.920000	12.078368	262.822000
-0.441000	-75.860000	-15.693300	-15.693300	12.110542	262.897000
-0.428900	-73.780000	-15.433300	-15.433300	12.147441	262.972000
-0.417000	-71.740000	-15.146700	-15.146700	12.188116	263.047000
-0.405300	-69.720000	-14.953300	-14.953300	12.215563	263.122000
-0.393300	-67.660000	-14.693300	-14.693300	12.252462	263.197000
-0.381600	-65.640000	-14.400000	-14.400000	12.294088	263.272000
-0.370000	-63.660000	-14.173300	-14.173300	12.326261	263.347000
-0.358500	-61.680000	-13.980000	-13.980000	12.353694	263.421000
-0.347300	-59.740000	-13.653300	-13.653300	12.400060	263.496000
-0.336300	-57.860000	-13.460000	-13.460000	12.427493	263.571000
-0.325400	-55.980000	-13.233300	-13.233300	12.459666	263.646000
-0.314400	-54.080000	-12.946700	-12.946700	12.500341	263.721000
-0.303800	-52.260000	-12.653300	-12.653300	12.541980	263.796000
-0.293100	-50.420000	-12.460000	-12.460000	12.569413	263.871000
-0.282300	-48.560000	-12.166700	-12.166700	12.611039	263.946000
-0.271700	-46.740000	-11.906700	-11.906700	12.647938	264.021000
-0.261100	-44.920000	-11.713300	-11.713300	12.675385	264.096000
-0.250500	-43.100000	-11.453300	-11.453300	12.712285	264.171000
-0.240400	-41.360000	-11.166700	-11.166700	12.752959	264.246000
-0.230200	-39.600000	-10.940000	-10.940000	12.785132	264.320000
-0.220000	-37.840000	-10.713300	-10.713300	12.817306	264.395000
-0.209800	-36.100000	-10.453300	-10.453300	12.854205	264.469000
-0.200100	-34.420000	-10.193300	-10.193300	12.891104	264.543000
-0.190100	-32.700000	-9.966700	-9.966700	12.923264	264.618000
-0.180200	-31.000000	-9.740000	-9.740000	12.955437	264.692000
-0.170300	-29.300000	-9.513300	-9.513300	12.987610	264.766000
-0.160700	-27.640000	-9.220000	-9.220000	13.029236	264.841000
-0.151400	-26.040000	-8.966700	-8.966700	13.065184	264.915000
-0.141700	-24.380000	-8.706700	-8.706700	13.102083	264.990000
-0.132500	-22.800000	-8.480000	-8.480000	13.134257	265.064000
-0.123300	-21.220000	-8.253300	-8.253300	13.166430	265.138000
-0.114200	-19.640000	-7.960000	-7.960000	13.208055	265.213000
-0.105100	-18.080000	-7.700000	-7.700000	13.244955	265.287000
-0.095900	-16.500000	-7.473300	-7.473300	13.277128	265.362000
-0.086700	-14.920000	-7.246700	-7.246700	13.309287	265.436000
-0.077800	-13.380000	-6.960000	-6.960000	13.349976	265.510000
-0.068900	-11.860000	-6.700000	-6.700000	13.386875	265.585000
-0.060100	-10.340000	-6.506700	-6.506700	13.414308	265.659000
-0.051300	-8.820000	-6.246700	-6.246700	13.451208	265.734000
-0.042400	-7.300000	-6.020000	-6.020000	13.483381	265.809000
-0.033700	-5.800000	-5.760000	-5.760000	13.520280	265.884000
-0.025200	-4.340000	-5.500000	-5.500000	13.557180	265.959000
-0.016600	-2.860000	-5.240000	-5.240000	13.594079	266.034000
-0.008400	-1.440000	-5.013300	-5.013300	13.626252	266.108000
0.000000	0.000000	-4.760000	-4.760000	13.662201	266.183000
0.008300	1.420000	-4.500000	-4.500000	13.699100	266.258000
0.016400	2.820000	-4.306700	-4.306700	13.726533	266.334000
0.024600	4.240000	-4.046700	-4.046700	13.763433	266.409000
0.032600	5.600000	-3.786700	-3.786700	13.800332	266.484000
0.040600	6.980000	-3.593300	-3.593300	13.827780	266.559000
0.048500	8.340000	-3.333300	-3.333300	13.864679	266.634000
0.056400	9.700000	-3.040000	-3.040000	13.906304	266.710000
0.063900	11.000000	-2.813300	-2.813300	13.938477	266.785000
0.071500	12.300000	-2.586700	-2.586700	13.970637	266.860000
0.078700	13.540000	-2.360000	-2.360000	14.002810	266.936000
0.085900	14.780000	-2.166700	-2.166700	14.030243	267.011000
0.093200	16.040000	-1.940000	-1.940000	14.062417	267.086000
0.100200	17.240000	-1.713300	-1.713300	14.094590	267.162000
0.106800	18.380000	-1.520000	-1.520000	14.122023	267.238000
0.113600	19.540000	-1.326700	-1.326700	14.149456	267.315000
0.120400	20.720000	-1.066700	-1.066700	14.186356	267.394000
0.127300	21.900000	-0.840000	-0.840000	14.218529	267.472000
0.134200	23.080000	-0.646700	-0.646700	14.245962	267.549000
0.140900	24.240000	-0.386700	-0.386700	14.282862	267.626000
0.147500	25.380000	-0.193300	-0.193300	14.310309	267.704000
0.153900	26.480000	0.033300	0.033300	14.342468	267.758000
0.156500	26.920000	0.100000	0.100000	14.351934	267.767000
0.155000	26.660000	0.033300	0.033300	14.361400	267.771000
